Energy(keV)	ProbaCum
3960.9	0.0000014159
3708.4	0.0000033038
3475.1	0.0000047197
3197.7	0.0000084955
2614.511	0.0941713160
2029.4	0.0941760480
1979.3	0.0941807810
1971.9	0.0941902470
1965.24	0.0942438870
1958.4	0.0942478310
1955.9	0.0942499340
1952.33	0.0944050680
1936.3	0.0944105900
1929.78	0.0944629150
1907.18	0.0944942040
1900.07	0.0945015670
1887.1	0.0947382120
1879.6	0.0947416300
1870.83	0.0948055240
1850.13	0.0948170930
1842.13	0.0949275280
1835.43	0.0950274440
1826.7	0.0950329660
1823.22	0.0951486590
1806	0.0953853040
1800.86	0.0953968730
1797.5	0.0954023950
1795.1	0.0954079170
1772.2	0.0954126500
1758.11	0.0955046780
1750.54	0.0955257130
1744	0.0955276010
1742	0.0955486360
1740.4	0.0955775600
1738.22	0.0956248890
1724.21	0.0957011410
1713.47	0.0957153400
1706.19	0.0957376890
1702.43	0.0958639000
1700.59	0.0958904570
1686.09	0.0961402490
1679.7	0.0962927530
1677.67	0.0964347400
1666.523	0.0969027710
1647.5	0.0969046590
1638.281	0.0981404710
1630.627	0.1021108470
1625.06	0.1027813410
1620.5	0.1066465420
1609.41	0.1066667880
1588.2	0.1151334180
1580.53	0.1167110510
1573.26	0.1167978200
1571.52	0.1168128080
1559.85	0.1168653960
1557.11	0.1173334270
1548.65	0.1174333430
1537.89	0.1175569250
1512.7	0.1183194470
1501.57	0.1195289660
1495.91	0.1217902400
1469.71	0.1218428270
1459.138	0.1240252190
1451.4	0.1240530910
1430.95	0.1241451190
1415.66	0.1242003370
1401.49	0.1242318890
1381.1	0.1242384970
1374.19	0.1242753080
1365.7	0.1243121200
1357.78	0.1243647080
1347.5	0.1244041480
1344.59	0.1244278130
1315.34	0.1244672540
1309.71	0.1245172120
1287.68	0.1247275630
1286.27	0.1248590330
1282.8	0.1249081180
1276.69	0.1249449290
1250.04	0.1251079510
1247.08	0.1264226450
1245.05	0.1266724370
1229.4	0.1266921580
1217.03	0.1267473750
1190.81	0.1267636770
1185.2	0.1267797240
1175.31	0.1268428300
1164.5	0.1270137400
1160.8	0.1270241230
1157.14	0.1270425290
1153.52	0.1274080140
1148.12	0.1274235270
1142.85	0.1274506100
1135.24	0.1274763780
1125.7	0.1274810980
1117.63	0.1276230850
1110.61	0.1283724600
1110.61	0.1284224190
1103.41	0.1284618600
1095.679	0.1288010510
1093.9	0.1292069490
1088.18	0.1292224630
1078.62	0.1307054370
1074.71	0.1307317310
1073.6	0.1307738020
1065.18	0.1311208810
1062.55	0.1311471750
1054.11	0.1311945040
1053.09	0.1312286860
1040.92	0.1313443790
1039.65	0.1314600720
1033.248	0.1319885790
1019.86	0.1320437960
1017.92	0.1320587840
1016.44	0.1321087420
1013.58	0.1321208370
1000.69	0.1321339840
992.9	0.1321339880
988.63	0.1323364510
987.71	0.1325389140
982.7	0.1327324230
979.48	0.1328007880
975.96	0.1329322570
968.971	0.1744765880
964.766	0.1875972350
958.61	0.1883334640
952.12	0.1887804600
947.982	0.1890591750
944.196	0.1893089670
939.87	0.1893326310
930.93	0.1893652350
927.6	0.1894832290
924.03	0.1895029500
921.98	0.1895416020
918.97	0.1896125950
911.204	0.2574508070
908.1	0.2574508120
904.2	0.2594754410
901.23	0.2595175110
893.408	0.2605114200
887.33	0.2605824130
883.3	0.2606116760
880.76	0.2606279780
877.46	0.2606647890
874.44	0.2607883700
873.17	0.2608698810
870.46	0.2609855740
860.557	0.2727849530
853.17	0.2727931050
840.377	0.2751858480
835.71	0.2794191620
832	0.2794192010
830.486	0.2808390700
824.934	0.2809705400
821.2	0.2810092420
816.71	0.2810881230
813.77	0.2811065290
804.9	0.2811097310
794.947	0.2922846310
792.8	0.2924949820
791.49	0.2925212760
791.49	0.2925554580
785.37	0.2954530430
782.142	0.2967282970
778.23	0.2967861430
776.56	0.2968361020
774.1	0.2969938650
772.291	0.3009116530
770.04	0.3009282180
763.13	0.3026178890
755.315	0.3052472770
748.7	0.3052906990
742.2	0.3052907030
737.72	0.3053879900
727.33	0.3229260090
726.863	0.3245562290
722.04	0.3247827770
718.48	0.3248327360
707.41	0.3252402910
705.2	0.3252610580
701.747	0.3257159420
700.5	0.3257159500
699.08	0.3258132380
692.5	0.3258279620
688.1	0.3260041310
684	0.3260540890
677.11	0.3262171120
674.75	0.3263485810
674.16	0.3264800500
672	0.3265484140
666.45	0.3266982900
666.45	0.3267114370
663.82	0.3267850590
660.1	0.3267982060
651.51	0.3270348510
650.1	0.3270820490
648.84	0.3271872240
645.5	0.3272014230
640.34	0.3273434100
629.4	0.3274617320
627.23	0.3274985440
623.27	0.3275274670
620.38	0.3277378180
620	0.3277391330
616.22	0.3279494840
610.64	0.3280099600
590.4	0.3280546590
587.7	0.3281112960
583.41	0.3284031590
583.187	0.4086389350
576	0.4086394090
572.14	0.4090338170
570.91	0.4095123660
562.5	0.4117999330
555.12	0.4119208850
549.73	0.4122206350
548.73	0.4122811110
546.47	0.4128096180
540.76	0.4128779820
523.131	0.4131488090
520.151	0.4133249780
515.06	0.4134538180
510.77	0.4347870960
508.959	0.4359703200
503.823	0.4364488690
497.49	0.4364643820
493.3	0.4364691150
492.37	0.4365309060
490.33	0.4365600920
485.95	0.4366063450
480.94	0.4366668210
478.33	0.4372163630
474.75	0.4372742100
473	0.4374056790
471.76	0.4374924490
470.25	0.4375266310
463.004	0.4490959390
457.17	0.4491353800
452.98	0.4500898470
452.47	0.4501292880
449.15	0.4502554990
440.44	0.4505736550
433.7	0.4506183540
422.04	0.4506262430
419.42	0.4506814600
416.3	0.4507161680
415.2	0.4507506130
409.462	0.4557990380
404.2	0.4558048220
399.62	0.4558810750
397.94	0.4559520680
389.12	0.4559791510
384.63	0.4559967680
377.99	0.4560625020
372.57	0.4560801190
356.94	0.4561248190
340.96	0.4570950630
338.32	0.4867282670
332.37	0.4877800220
328.03	0.4881086950
328	0.4958653900
327.44	0.4961809170
326.04	0.4962676870
321.646	0.4968619280
300.087	0.5055389090
292.7	0.5055552110
288.2	0.5064413150
282	0.5066306310
278.95	0.5070513330
278.95	0.5071328440
277.371	0.5133629160
270.245	0.5224605990
263.58	0.5225657740
257.52	0.5226446560
252.61	0.5233809370
240.986	0.5341614280
238.632	0.6488027480
233.36	0.6490953730
231.42	0.6491611080
228.5	0.6491611550
223.85	0.6493031420
215.983	0.6499710060
214.85	0.6500472590
211.4	0.6502171700
209.253	0.6604454890
205.93	0.6604970250
204.026	0.6607915170
199.407	0.6616197740
191.353	0.6619431890
184.54	0.6621272460
182.2	0.6621272600
180.2	0.6621356740
176.68	0.6622724020
173.964	0.6623644300
168.65	0.6623907240
168.65	0.6623986120
166.41	0.6626710170
153.977	0.6645694350
145.849	0.6649848790
142	0.6649848820
141.02	0.6651163510
140.88	0.6651715690
135.54	0.6652188980
131.613	0.6655620330
129.065	0.6719251520
115.183	0.6734922670
114.56	0.6735180350
108.582	0.6742542640
105.604	0.6761474230
104.819	0.6771465910
102.498	0.6771472220
102.498	0.6771542420
100.41	0.6773987750
100.13	0.6774004580
100.13	0.6774190220
99.509	0.6807320500
99.432	0.6807329440
99.432	0.6807426470
97.53	0.6807907650
94.868	0.6809188160
94.247	0.6809861280
93.35	0.6891372310
92.317	0.6891519820
89.957	0.6941478190
89.807	0.6941877860
89.784	0.6980266930
89.256	0.6980474910
88.471	0.6980548530
88.471	0.6981342610
87.349	0.7085729320
87.3	0.7088400700
86.83	0.7142829030
85.431	0.7142873730
85.431	0.7143360170
84.938	0.7150685220
84.865	0.7150885580
84.45	0.7154699140
84.373	0.7186777670
83.787	0.7192325680
82.574	0.7192875220
82.115	0.7193161830
81.069	0.7196527440
79.29	0.7198249690
77.34	0.7198933330
77.107	0.7648558690
76.863	0.7649592040
74.969	0.7681214380
74.815	0.7951515470
74.4	0.7951525990
72.873	0.7953905590
72.805	0.7972878990
70.832	0.7974298860
63.81	0.7981214150
57.766	0.7993572270
42.46	0.7993808920
39.857	0.8021680430
26.4	0.8022048550
18.4	0.8022416660
13.52	0.8063172170
13	0.8949275950
12.75	0.8957427060
12.7	0.8984509750
12.3	0.9171196310
12.3	0.9402582460
11.7	0.9412468960
11.1	0.9413980860
10.8	0.9789983350
10.6	0.9815941980
10.3	0.9999999150
6.67	0.9999999960
6.28	1.0000000000
